
  Data: Real and imaginary indices of refraction for water, ice,
  sodium chloride, sea salt, water soluble aerosol, ammonium sulfate,
  carbonaceous aerosol, volcanic dust, sulfuric acid, meteoric dust,
  quartz, hematite, sand, and dust-like aerosol. The tabulations
  start and 0.2 microns and extend out to 40 microns (or to longer
  wavelengths). These indices were used to generate the aerosol models
  which are incorporated into the LOWTRAN, MODTRAN, and FASCODE computer
  codes.

  References: The data were tabulated by E. P. Shettle of the Naval
  Research Laboratory, who provides the following references and notes.

------------------------------------------------------------------------
Indices of Refraction for Atmospheric Particulates

     This appendix gives indices of refraction for a wide range
of atmospheric particulates.  The values were obtained from an
extensive review of the scientific literature.  Table A-1 lists
the substances for which index of refraction data have been
tabulated.  (The references corresponding to the reference
numbers in Table A-1 are listed at the end of this appendix.) 
Tables A-2 through A-6 give the indices of refraction for the
substances listed in Table A-1.  In these tables, the complex
index of refraction is represented by m = n + ik.  

 Table A-1. 
 Substances for Which Indices of Refraction Have Been
 Tabulated in This Appendix

____________________________________________________________
                                                            
                   REFERENCE                                
 SUBSTANCE          NUMBER            COMMENT               
____________________________________________________________
  
		   TABLE A2
  ---------------------------------------------------
 Water             A-1, A-2           A-2 data is for a     
                                      temperature of 10 C   
                                                            
 Ice               A-3, A-4                                 
                                                            
 Sodium Chloride   A-5                Crystalline form      
                                                            
 Sea Salt          A-6, A-7, A-8      Crystalline form      
  ----------------------------------------------------                                                            

		   TABLE A3
  ---------------------------------------------------                                                            
 Water Soluble     A-7, A-8, A-9                            
                                                            
                                                            
 Ammonium Sulfate  A-10               Crystalline form      
                                                            
 Carbonaceous      A-8, A-11                                
 ----------------------------------------------------                                                            

		   TABLE A4
  ---------------------------------------------------                    
 Volcanic Dust     A-12                                     
                                                            
 Sulfuric Acid     A-13               75% solution with H2O.
                                      Values are given for  
                                      temperatures of 215   
                                      and 300 K             
                                                            
 Meteoric Dust     A-3, A-14                                
 ----------------------------------------------------                                                            

		   TABLE A5
  ---------------------------------------------------                                                                                
 Quartz            A-15, A-16, A-17,  Anisotropic material. 
                   A-18, A-19         Values are given for  
                                      the O and E rays      
                                                            
 Hematite          A-19, A-20, A-21,  Anisotropic material. 
 (Iron Oxide)      A-22, A-23         Values are given for  
                                      the O and E rays      
 ----------------------------------------------------                                                            

		   TABLE A6
  ---------------------------------------------------                                                                                
 Sand              A-19               Internal mixture of   
                                      hematite and quartz.  
                                      Hematite is 10% by    
                                      volume                
                                                            
 Dust-Like         A-7, A-8, A-9                            
____________________________________________________________


A-1.  Hale, G. M. and Querry, M. R. (1973) Optical constants of
water in the 200 nm to 200 um wavelength region, Appl. Opt.,
12:555-563.

A-2.  Ray, P. S. (1972) Broadband complex refractive indices of
ice and water, Appl. Opt., 11:1836-1844.

A-3.  Fenn, R. W., Clough, S. A., Gallery, W. O., Good, R. E.,
Kneizys, F. X., Mill, J. D., Rothman, L. S. and Shettle, E.P.
(1985) Optical and infrared properties of the atmosphere, Chapter
18 in Handbook of Geophysics and the Space Environment, Edited by
A.S. Jursa, Air Force Geophysics Laboratory, Hanscom AFB, MA.

A-4.  Warren, S. G. (1984) Optical constants of ice from the
ultraviolet to the microwave, Appl. Opt., 23:1206-1225.

A-5.  Eldridge, J. E. and Palik, E. D. (1985) Sodium Chloride, in
Handbook of Optical Constants of Solids, Edited by E. D. Palik,
Academic Press, Inc., Orlando, FL, 775-793.

A-6.  Dorsey, N. E. (1940) Properties of ordinary water-substance
in all its phases: water vapor and all the ices, American
Chemistry Society, Monograph Series, Reinhold Publishing Corp.,
New York, NY, 332-338.

A-7.  Volz, F. E. (1972) Infrared refractive index of atmospheric
aerosol substance, Appl. Opt., 11:755-759.

A-8.  Shettle, E. P. and Fenn, R. W. (1979)  Models for the
Aerosols of the Lower Atmosphere and the Effects of Humidity
Variations on Their Optical Properties, AFGL-TR-79-0214, 20 Sept
1979, ADA085951.

A-9.  Volz, F. E. (1972) Infrared absorption by atmospheric
aerosol substance, J. Geophys. Res., 77:1017-1031.

A-10. Toon, O. B., Pollock, J. B. and Khare, B. N. (1976) The
optical constants of several atmospheric aerosols species:
ammonium sulfate, aluminum oxide and sodium chloride, J. Geophys.
Res., 81:5733-5748.

A-11. Twitty, J. T. and Weinman, J. A. (1971) Radiative
properties of carbonaceous aerosols, J. Appl. Meteor.,
10:725-731.

A-12. Volz, F. E. (1973) Infrared optical constants of ammonium
sulfate, Sahara dust, volcanic pumice and fly ash, Appl. Opt.,
12:564-568.

A-13. Hummel, J. R., Shettle, E. P. and Longtin, D. R. (1988) A
New Background Stratospheric Aerosol Model for Use in Atmospheric
Radiation Models, AFGL-TR-88-0166, Air Force Geophysics
Laboratory, Hanscom AFB, MA, August 1988.

A-14. Shettle, E. P. and Volz, F. E. (1976) Optical constants for
 meteoric dust aerosol models, in Atmospheric Aerosols: Their
Optical Properties and Effects, a Topical Meeting on Atmospheric
Aerosols sponsored by the Optical Society of America and NASA
Langley Research Center, Williamsburg, VA, 13-15 Dec. 1976. NASA
Conference Publication CP 2004.

A-15. Gray, D. C. (1963), American Institute of Physics Handbook,
McGraw-Hill, New York, NY, 1963, 2nd Edition.

A-16. Drummond, D. G. (1936) Absorption coefficients of crystal
quartz in the infrared, Proc. Roy. Soc. (London)-Series A,
153:328-338.

A-17. Spitzer, W. G. and Kleinman, D. A. (1961) Infrared lattice
bands of quartz, Phys. Rev., 121:1324-1335.

A-18. Philipp, H. R. (1985) Silicon dioxide (SiO2), type-
(crystalline), in Handbook of Optical Constants of Solids, Edited
by E. D. Palik, Academic Press, Inc., Orlando, FL, 719-747.

A-19. Longtin, D. R., Shettle, E. P., Hummel, J. R. and Pryce, J.
D., (1988) A Wind Dependent Desert Aerosol Model: Radiative
Properties, AFGL-TR-88-0112, Air Force Geophysics Laboratory,
Hanscom AFB, MA, April 1988.

A-20. Galuza, A. I., Eremenko, V. V. and Kirichenko, A. P. (1979)
Analysis of hematite reflection spectrum by the Kramers-Kronig
method, Sov. Phys. Solid State, 21:654-656.

A-21. Kerker, M., Scheiner, P., Cooke, D. D. and Kratohvil, J.P.
(1979) Absorption index and color of colloidal hematite, J.
Colloid. Interface Sci., 71:176-187.

A-22. Steyer, T. R. (1974) Infrared optical properties of some
solids of possible interest in astronomy and atmospheric physics,
Graduate Thesis, Department of Physics, University of Arizona.

A-23. Onari, S., Arai, T. and Kudo, K. (1977) Infrared lattice
vibrations and dielectric dispersion in - Fe2O3, Phys. Rev. B,
16:1717-1721. 

------------------------------------------------------------------------

  Format: wavelength (microns), real and imaginary indices of refraction.
  Tables A2-A6 are in free format.

------------------------------------------------------------------------

                                   Table A2
_____________________________________________________________________________
   WAVELENGTH WATER             ICE              SODIUM CHLORIDE  SEA SALT
   microns    n     k           n     k          n      k         n      k
______________________________________________________________________________

     0.200   1.396  1.10e-7    1.394  1.50e-8    1.790  3.1e-9    1.510  1.0e-4 
     0.250   1.362  3.35e-8    1.351  8.60e-9    1.655  2.3e-9    1.510  5.0e-6 
     0.300   1.349  1.60e-8    1.334  5.50e-9    1.607  1.5e-9    1.510  2.0e-6 
     0.337   1.345  8.45e-9    1.326  4.50e-9    1.587  8.7e-10   1.510  4.0e-7 
     0.400   1.339  1.86e-9    1.320  2.71e-9    1.567  3.8e-10   1.500  3.0e-8 
     0.488   1.335  9.69e-10   1.313  1.75e-9    1.553  1.1e-10   1.500  2.0e-8 
     0.515   1.334  1.18e-9    1.312  2.19e-9    1.550  4.9e-11   1.500  1.0e-8 
     0.550   1.333  1.96e-9    1.311  3.11e-9    1.547  6.8e-11   1.500  1.0e-8 
     0.633   1.332  1.46e-8    1.308  1.09e-8    1.542  1.1e-10   1.490  2.0e-8 
     0.694   1.331  3.05e-8    1.306  2.62e-8    1.539  1.5e-10   1.490  1.0e-7 
     0.860   1.329  3.29e-7    1.303  2.15e-7    1.534  2.4e-10   1.480  3.0e-6 
     1.060   1.326  4.18e-6    1.300  1.96e-6    1.531  3.5e-10   1.470  2.0e-4 
     1.300   1.323  3.69e-5    1.295  1.32e-5    1.529  4.8e-10   1.470  4.0e-4 
     1.536   1.318  9.97e-5    1.290  6.10e-4    1.528  6.1e-10   1.460  6.0e-4 
     1.800   1.312  1.15e-4    1.282  1.13e-4    1.527  7.5e-10   1.450  8.0e-4 
     2.000   1.306  1.10e-3    1.273  1.61e-3    1.527  8.6e-10   1.450  0.0010
     2.250   1.292  3.90e-4    1.256  2.13e-4    1.526  1.0e-09   1.440  0.0020
     2.500   1.261  0.00174    1.225  7.95e-4    1.525  1.1e-9    1.430  0.0040
     2.700   1.188  0.0190     1.163  0.00293    1.525  1.2e-9    1.400  0.0070
     3.000   1.371  0.272      1.045  0.429      1.524  1.4e-9    1.610  0.0100
     3.200   1.478  0.0924     1.652  0.283      1.524  1.5e-9    1.490  0.0030
     3.392   1.422  0.0204     1.510  0.0401     1.523  1.6e-9    1.480  0.0020
     3.500   1.400  0.0094     1.453  0.0161     1.523  1.65e-9   1.480  0.0016
     3.750   1.369  0.0035     1.391  0.0070     1.522  1.8e-9    1.470  0.0014
     4.000   1.351  0.0046     1.361  0.0100     1.522  1.8e-9    1.480  0.0014
     4.500   1.332  0.0134     1.340  0.0287     1.520  1.8e-9    1.490  0.0014
     5.000   1.325  0.0124     1.327  0.0120     1.519  1.7e-9    1.470  0.0025
     5.500   1.298  0.0116     1.299  0.0217     1.517  2.6e-9    1.420  0.0036
     6.000   1.265  0.107      1.296  0.0647     1.515  4.9e-9    1.410  0.0110
     6.200   1.363  0.0880     1.313  0.0683     1.515  5.8e-9    1.600  0.022
     6.500   1.339  0.0392     1.320  0.0559     1.513  7.2e-9    1.460  0.005
     7.200   1.312  0.0321     1.318  0.0544     1.510  1.0e-8    1.420  0.007
     7.900   1.294  0.0339     1.313  0.0479     1.507  1.4e-8    1.400  0.013
     8.200   1.286  0.0351     1.306  0.0390     1.505  1.5e-8    1.420  0.020
     8.500   1.278  0.0367     1.291  0.0391     1.504  1.6e-8    1.480  0.026
     8.700   1.272  0.0379     1.282  0.0400     1.503  1.7e-8    1.600  0.030
     9.000   1.262  0.0399     1.269  0.0429     1.501  1.9e-8    1.650  0.028
     9.200   1.255  0.0415     1.261  0.0446     1.500  2.0e-8    1.610  0.026
     9.500   1.243  0.0444     1.245  0.0459     1.498  3.0e-8    1.580  0.018
     9.800   1.229  0.0479     1.219  0.0470     1.496  4.4e-8    1.560  0.016
    10.000   1.218  0.0508     1.197  0.0510     1.495  5.3e-8    1.540  0.015
    10.591   1.179  0.0674     1.098  0.131      1.491  8.0e-8    1.500  0.014
    11.000   1.153  0.0968     1.093  0.239      1.488  1.3e-7    1.480  0.014
    11.500   1.126  0.142      1.176  0.360      1.484  3.3e-7    1.480  0.014
    12.500   1.123  0.259      1.387  0.422      1.476  1.4e-6    1.420  0.016
    13.000   1.146  0.305      1.472  0.389      1.471  2.8e-6    1.410  0.018
    14.000   1.210  0.370      1.569  0.283      1.462  8.8e-6    1.410  0.023
    14.800   1.258  0.396      1.579  0.191      1.454  2.3e-5    1.430  0.030
    15.000   1.270  0.402      1.572  0.177      1.451  2.7e-5    1.450  0.035
    16.400   1.346  0.427      1.531  0.125      1.435  7.6e-5    1.560  0.090
    17.200   1.386  0.429      1.534  0.107      1.425  1.3e-4    1.740  0.120
    18.000   1.423  0.426      1.522  0.0839     1.414  2.0e-4    1.780  0.130
    18.500   1.443  0.421      1.510  0.0760     1.406  2.9e-4    1.770  0.135
    20.000   1.480  0.393      1.504  0.0670     1.382  6.2e-4    1.760  0.152
    21.300   1.491  0.379      1.481  0.0385     1.360  9.9e-4    1.760  0.165
    22.500   1.506  0.370      1.455  0.0291     1.330  0.0014    1.760  0.180
    25.000   1.531  0.356      1.414  0.0299     1.270  0.0035    1.760  0.205
    27.900   1.549  0.339      1.358  0.0490     1.170  0.0100    1.770  0.275
    30.000   1.551  0.328      1.325  0.0650     1.080  0.026     1.770  0.300
    35.000   1.532  0.336      1.226  0.155      0.780  0.140     1.760  0.500
    40.000   1.519  0.385      1.202  0.344      0.580  0.660     1.740  1.00
    45.000   1.536  0.449      1.299  0.601      0.270  1.08      0.000  0.00
    50.000   1.587  0.514      1.629  0.543      0.140  1.99      0.000  0.00 
    55.000   1.645  0.551      1.767  0.420      0.310  3.46      0.000  0.00
    60.000   1.703  0.587      1.585  0.390      4.520  6.94      0.000  0.00
    65.000   1.762  0.582      1.748  0.490      5.280  0.761     0.000  0.00
    70.000   1.821  0.576      1.869  0.399      3.920  0.271     0.000  0.00
    80.000   1.920  0.520      1.903  0.235      3.170  0.123     0.000  0.00
    90.000   1.979  0.490      1.856  0.165      2.870  0.0968    0.000  0.00
   100.000   2.037  0.460      1.832  0.139      2.740  0.0870    0.000  0.00
   110.000   2.060  0.440      1.821  0.126      2.640  0.0790    0.000  0.00
   120.000   2.082  0.420      1.819  0.120      2.590  0.0770    0.000  0.00
   135.000   2.094  0.410      1.819  0.108      2.540  0.0720    0.000  0.00
   150.000   2.106  0.400      1.823  0.0962     2.500  0.0640    0.000  0.00
   165.000   2.109  0.410      1.829  0.0846     2.480  0.0560    0.000  0.00
   180.000   2.113  0.420      1.832  0.0650     2.470  0.0520    0.000  0.00
   200.000   2.117  0.430      1.827  0.0452     2.450  0.0470    0.000  0.00
   250.000   2.120  0.460      1.807  0.0222     2.440  0.0410    0.000  0.00
   300.000   2.121  0.490      1.795  0.0153     2.430  0.0300    0.000  0.00
   400.000   2.142  0.530      1.786  0.0125     2.430  0.0270    0.000  0.00
   500.000   2.177  0.580      1.783  0.0106     2.430  0.0240    0.000  0.00
   750.000   2.291  0.650      1.782  0.0080     2.430  0.0120    0.000  0.00
  1000.000   2.437  0.730      1.781  0.0065     2.430  0.0080    0.000  0.00
  1500.000   2.562  0.960      1.782  0.0049     2.430  0.0061    0.000  0.00
  2000.000   2.705  1.19       1.782  0.0040     2.430  0.0047    0.000  0.00
  3000.000   3.013  1.59       1.782  0.0030     2.430  0.0029    0.000  0.00
  5000.000   3.627  2.14       1.783  0.0021     2.430  0.0024    0.000  0.00
 10000.000   4.954  2.79       1.784  0.0013     2.430  5.6e-4    0.000  0.00
 20000.000   6.728  2.87       1.784  7.9e-4     2.430  4.1e-4    0.000  0.00
 30000.000   7.682  2.51       1.784  5.9e-4     2.430  2.6e-4    0.000  0.00
 _______________________________________________________________________________
      


                                   Table A3
      ________________________________________________________________________
                                                          
       WAVELENGTH    WATER SOLUBLE     AMMONIUM SULFATE      CARBONACEOUS    
          microns    n      k            n     k              n     k     
      ________________________________________________________________________
                                                          
          0.200      1.530  0.070       1.550  1.0e-7        1.500  0.350    
          0.250      1.530  0.030       1.550  1.0e-7        1.620  0.450    
          0.300      1.530  0.008       1.540  1.0e-7        1.740  0.470    
          0.337      1.530  0.005       1.540  1.0e-7        1.750  0.470    
          0.400      1.530  0.005       1.540  1.0e-7        1.750  0.460    
          0.488      1.530  0.005       1.540  1.0e-7        1.750  0.450    
          0.515      1.530  0.005       1.530  1.0e-7        1.750  0.450    
          0.550      1.530  0.006       1.530  1.0e-7        1.750  0.440    
          0.633      1.530  0.006       1.520  1.0e-7        1.750  0.430    
          0.694      1.530  0.007       1.520  1.0e-7        1.750  0.430    
          0.860      1.520  0.012       1.520  1.5e-7        1.750  0.430    
          1.060      1.520  0.017       1.510  1.8e-6        1.750  0.440    
          1.300      1.510  0.020       1.500  1.7e-5        1.760  0.450    
          1.536      1.510  0.023       1.490  7.7e-5        1.770  0.460    
          1.800      1.460  0.017       1.480  7.6e-5        1.790  0.480    
          2.000      1.420  0.008       1.470  0.0010        1.800  0.490    
          2.250      1.420  0.010       1.460  0.0011        1.810  0.500    
          2.500      1.420  0.012       1.440  3.5e-4        1.820  0.510    
          2.700      1.400  0.055       1.410  0.0020        1.830  0.520    
          3.000      1.420  0.022       1.300  0.096         1.840  0.540    
          3.200      1.430  0.008       1.490  0.260         1.860  0.540    
          3.392      1.430  0.007       1.610  0.170         1.870  0.550    
          3.500      1.450  0.005       1.610  0.140         1.880  0.560    
          3.750      1.452  0.004       1.580  0.036         1.900  0.570    
          4.000      1.455  0.005       1.550  0.0140        1.920  0.580    
          4.500      1.460  0.013       1.500  0.0073        1.940  0.590    
          5.000      1.450  0.012       1.460  0.0065        1.970  0.600    
          5.500      1.440  0.018       1.410  0.008         1.990  0.610    
          6.000      1.410  0.023       1.350  0.013         2.020  0.620    
          6.200      1.430  0.027       1.310  0.018         2.030  0.625    
          6.500      1.460  0.033       1.190  0.049         2.040  0.630    
