From:	IO::"memilham@CRDEC-VAX4.ARPA" 14-JUN-1988 12:52
To:	HAL::DALTON
Subj:	Optical Constants: Limestone

Received: from CRDEC-VAX4.ARPA by ames-io.ARPA with INTERNET ;
          Tue, 14 Jun 88 12:42:36 PDT
Date:     Tue, 14 Jun 88 14:16:56 EDT
From:     "Merrill E. Milham" <memilham@CRDEC-VAX4.ARPA>
To:       dalton%hal@AMES-IO.ARPA
Subject:  Optical Constants: Limestone
Message-ID:  <8806141416.aa15731@CRDEC-VAX4.CRDEC-VAX4.ARPA>
 
LIMESTONE-M.R.QUERRY
    wl          wvn  		n     k
   (um)         (cm-1)        
    0.200000    50000.0    1.27700   0.472000
    0.210000    47619.1    1.61300    5.80000E-02
    0.220000    45454.5    1.60000    5.20000E-02
    0.230000    43478.3    1.59200    5.20000E-02
    0.240000    41666.7    1.58400    5.40000E-02
    0.250000    40000.0    1.58300    6.10000E-02
    0.260000    38461.5    1.59300    5.50000E-02
    0.270000    37037.0    1.58800    4.20000E-02
    0.280000    35714.3    1.57900    4.10000E-02
    0.290000    34482.8    1.57900    3.80000E-02
    0.300000    33333.3    1.56900    3.40000E-02
    0.310000    32258.1    1.56400    3.70000E-02
    0.320000    31250.0    1.56300    3.70000E-02
    0.330000    30303.0    1.55900    3.60000E-02
    0.340000    29411.8    1.55400    3.70000E-02
    0.350000    28571.4    1.55300    4.00000E-02
    0.360000    27777.8    1.55100    4.20000E-02
    0.370000    27027.0    1.55000    4.40000E-02
    0.380000    26315.8    1.54800    4.70000E-02
    0.390000    25641.0    1.54900    5.00000E-02
    0.400000    25000.0    1.54800    5.20000E-02
    0.410000    24390.2    1.54900    5.80000E-02
    0.420000    23809.5    1.55700    6.40000E-02
    0.430000    23255.8    1.56600    6.10000E-02
    0.440000    22727.3    1.57000    5.50000E-02
    0.450000    22222.2    1.57100    4.80000E-02
    0.460000    21739.1    1.56600    4.70000E-02
    0.470000    21276.6    1.56800    4.80000E-02
    0.480000    20833.3    1.56900    4.40000E-02
    0.490000    20408.2    1.56900    4.10000E-02
    0.500000    20000.0    1.56600    3.70000E-02
    0.510000    19607.8    1.56100    3.80000E-02
    0.520000    19230.8    1.56100    4.10000E-02
    0.530000    18867.9    1.56200    4.10000E-02
    0.540000    18518.5    1.56200    4.00000E-02
    0.550000    18181.8    1.56200    4.10000E-02
    0.560000    17857.1    1.56200    4.00000E-02
    0.570000    17543.9    1.56100    4.10000E-02
    0.580000    17241.4    1.56200    4.10000E-02
    0.590000    16949.2    1.56100    4.30000E-02
    0.600000    16666.7    1.56500    4.50000E-02
    0.610000    16393.4    1.56900    4.10000E-02
    0.620000    16129.0    1.56800    3.80000E-02
    0.630000    15873.0    1.56700    3.80000E-02
    0.640000    15625.0    1.56900    3.60000E-02
    0.650000    15384.6    1.56800    3.20000E-02
    0.660000    15151.5    1.56700    2.90000E-02
    0.670000    14925.4    1.56300    2.70000E-02
    0.680000    14705.9    1.56000    2.80000E-02
    0.690000    14492.8    1.56000    2.70000E-02
    0.700000    14285.7    1.55600    2.50000E-02
    0.710000    14084.5    1.55100    2.80000E-02
    0.720000    13888.9    1.55000    3.20000E-02
    0.730000    13698.6    1.54900    3.40000E-02
    0.740000    13513.5    1.55200    3.50000E-02
    0.750000    13333.3    1.54900    3.50000E-02
    0.760000    13157.9    1.55000    3.80000E-02
    0.770000    12987.0    1.55100    4.00000E-02
    0.780000    12820.5    1.55200    4.00000E-02
    0.790000    12658.2    1.55100    4.00000E-02
    0.800000    12500.0    1.55200    4.10000E-02
    0.810000    12345.7    1.55200    4.20000E-02
    0.820000    12195.1    1.55500    4.00000E-02
    0.830000    12048.2    1.55000    3.90000E-02
    0.840000    11904.8    1.55000    4.40000E-02
    0.850000    11764.7    1.55200    4.50000E-02
    0.860000    11627.9    1.55200    4.60000E-02
    0.870000    11494.3    1.55400    4.70000E-02
    0.880000    11363.6    1.55500    4.60000E-02
    0.890000    11236.0    1.55500    4.50000E-02
    0.900000    11111.1    1.55400    4.40000E-02
    0.910000    10989.0    1.55100    4.60000E-02
    0.920000    10869.6    1.55300    4.90000E-02
    0.930000    10752.7    1.55500    5.00000E-02
    0.940000    10638.3    1.55500    5.10000E-02
    0.950000   10526.32    1.55700    5.20000E-02
    0.960000   10416.67    1.56000    5.10000E-02
    0.970000   10309.28    1.55900    5.00000E-02
    0.980000   10204.08    1.56000    5.00000E-02
    0.990000   10101.01    1.56000    5.10000E-02
     1.00000   10000.00    1.56200    5.20000E-02
     1.01000    9900.99    1.56400    5.00000E-02
     1.02000    9803.92    1.56400    4.90000E-02
     1.03000    9708.74    1.56400    4.80000E-02
     1.04000    9615.38    1.56200    4.90000E-02
     1.05000    9523.81    1.56400    4.90000E-02
     1.06000    9433.96    1.56400    4.80000E-02
     1.07000    9345.79    1.56400    4.80000E-02
     1.08000    9259.26    1.56300    4.80000E-02
     1.09000    9174.31    1.56400    4.80000E-02
     1.10000    9090.91    1.56300    4.70000E-02
     1.11000    9009.01    1.56300    4.90000E-02
     1.12000    8928.57    1.56400    5.10000E-02
     1.13000    8849.56    1.56800    4.80000E-02
     1.14000    8771.93    1.56500    4.50000E-02
     1.15000    8695.65    1.56300    4.80000E-02
     1.16000    8620.69    1.56500    4.80000E-02
     1.17000    8547.01    1.56400    4.70000E-02
     1.18000    8474.58    1.56300    4.80000E-02
     1.19000    8403.36    1.56400    4.90000E-02
     1.20000    8333.33    1.56400    4.90000E-02
     1.21000    8264.46    1.56500    4.80000E-02
     1.22000    8196.72    1.56400    4.90000E-02
     1.23000    8130.08    1.56500    4.90000E-02
     1.24000    8064.52    1.56600    4.90000E-02
     1.25000    8000.00    1.56600    4.90000E-02
     1.26000    7936.51    1.56600    4.90000E-02
     1.27000    7874.02    1.56600    4.90000E-02
     1.28000    7812.50    1.56700    4.90000E-02
     1.29000    7751.94    1.56700    4.90000E-02
     1.30000    7692.31    1.56600    4.80000E-02
     1.31000    7633.59    1.56600    4.90000E-02
     1.32000    7575.76    1.56800    5.00000E-02
     1.33000    7518.80    1.56800    4.80000E-02
     1.34000    7462.69    1.56800    4.70000E-02
     1.35000    7407.41    1.56700    4.70000E-02
     1.36000    7352.94    1.56600    4.80000E-02
     1.37000    7299.27    1.56700    4.80000E-02
     1.38000    7246.38    1.56700    4.80000E-02
     1.39000    7194.24    1.56700    4.80000E-02
     1.40000    7142.86    1.56700    4.90000E-02
     1.41000    7092.20    1.56700    4.90000E-02
     1.42000    7042.25    1.56700    4.90000E-02
     1.43000    6993.01    1.56700    4.90000E-02
     1.44000    6944.44    1.56700    4.90000E-02
     1.45000    6896.55    1.56700    5.00000E-02
     1.46000    6849.31    1.56800    5.00000E-02
     1.47000    6802.72    1.56800    4.90000E-02
     1.48000    6756.76    1.56800    4.90000E-02
     1.49000    6711.41    1.56800    5.00000E-02
     1.50000    6666.67    1.56800    5.00000E-02
     1.51000    6622.52    1.56800    4.90000E-02
     1.52000    6578.95    1.56800    5.00000E-02
     1.53000    6535.95    1.56900    5.00000E-02
     1.54000    6493.51    1.56900    5.00000E-02
     1.55000    6451.61    1.56900    4.90000E-02
     1.56000    6410.26    1.56900    4.90000E-02
     1.57000    6369.43    1.56800    4.90000E-02
     1.58000    6329.11    1.56800    5.00000E-02
     1.59000    6289.31    1.56900    4.90000E-02
     1.60000    6250.00    1.56800    4.90000E-02
     1.61000    6211.18    1.56900    5.00000E-02
     1.62000    6172.84    1.56800    5.00000E-02
     1.63000    6134.97    1.56900    4.90000E-02
     1.64000    6097.56    1.56800    4.90000E-02
     1.65000    6060.61    1.56900    5.00000E-02
     1.66000    6024.10    1.56800    4.90000E-02
     1.67000    5988.02    1.56900    5.00000E-02
     1.68000    5952.38    1.56900    5.00000E-02
     1.69000    5917.16    1.56900    5.00000E-02
     1.70000    5882.35    1.56900    4.90000E-02
     1.71000    5847.95    1.56900    4.90000E-02
     1.72000    5813.95    1.56800    4.90000E-02
     1.73000    5780.35    1.56900    5.00000E-02
     1.74000    5747.13    1.56700    5.00000E-02
     1.75000    5714.29    1.56900    5.10000E-02
     1.76000    5681.82    1.56800    5.00000E-02
     1.77000    5649.72    1.56900    5.10000E-02
     1.78000    5617.98    1.57000    5.00000E-02
     1.79000    5586.59    1.56900    4.90000E-02
     1.80000    5555.56    1.56900    4.90000E-02
     1.81000    5524.86    1.56800    4.90000E-02
     1.82000    5494.51    1.56800    4.90000E-02
     1.83000    5464.48    1.56700    4.90000E-02
     1.84000    5434.78    1.56700    4.90000E-02
     1.85000    5405.41    1.56600    4.90000E-02
     1.86000    5376.34    1.56500    5.00000E-02
     1.87000    5347.59    1.56500    5.00000E-02
     1.88000    5319.15    1.56400    5.00000E-02
     1.89000    5291.01    1.56300    5.10000E-02
     1.90000    5263.16    1.56300    5.30000E-02
     1.91000    5235.60    1.56300    5.40000E-02
     1.92000    5208.33    1.56300    5.50000E-02
     1.93000    5181.35    1.56300    5.60000E-02
     1.94000    5154.64    1.56300    5.70000E-02
     1.95000    5128.21    1.56400    5.80000E-02
     1.96000    5102.04    1.56300    5.90000E-02
     1.97000    5076.14    1.56300    6.00000E-02
     1.98000    5050.50    1.56300    6.30000E-02
     1.99000    5025.13    1.56500    6.80000E-02
     2.00000    5000.00    1.57100    7.00000E-02
     2.05000    4878.05    1.58200    5.90000E-02
     2.10000    4761.90    1.58100    5.30000E-02
     2.15000    4651.16    1.57900    5.00000E-02
     2.20000    4545.45    1.57900    4.80000E-02
     2.25000    4444.44    1.57600    4.50000E-02
     2.30000    4347.83    1.57100    4.40000E-02
     2.35000    4255.32    1.56800    4.90000E-02
     2.40000    4166.67    1.57500    5.10000E-02
     2.45000    4081.63    1.57200    4.50000E-02
     2.50000    4000.00    1.56600    5.00000E-02
     2.55000    3921.57    1.57300    5.80000E-02
     2.60000    3846.15    1.58600    4.90000E-02
     2.65000    3773.58    1.57500    6.00000E-02
     2.70000    3703.70    1.62300    4.90000E-02
     2.75000    3636.36    1.63800    4.90000E-02
     2.80000    3571.43    1.51100    4.90000E-02
     2.85000    3508.77    1.47600    1.80000E-02
     2.90000    3448.28    1.51000    6.40000E-02
     2.95000    3389.83    1.52700    7.30000E-02
     3.00000    3333.33    1.53500    6.60000E-02
     3.05000    3278.69    1.54600    6.10000E-02
     3.10000    3225.81    1.54300    5.00000E-02
     3.15000    3174.60    1.53500    5.00000E-02
     3.20000    3125.00    1.54100    5.40000E-02
     3.25000    3076.92    1.54200    4.90000E-02
     3.30000    3030.30    1.53600    4.50000E-02
     3.35000    2985.07    1.53200    5.00000E-02
     3.40000    2941.18    1.53100    5.40000E-02
     3.45000    2898.55    1.53000    5.70000E-02
     3.50000    2857.14    1.53400    5.70000E-02
     3.55000    2816.90    1.53200    5.50000E-02
     3.60000    2777.78    1.53200    5.60000E-02
     3.65000    2739.73    1.53100    5.40000E-02
     3.70000    2702.70    1.52800    5.10000E-02
     3.75000    2666.67    1.52300    5.00000E-02
     3.80000    2631.58    1.51900    5.20000E-02
     3.85000    2597.40    1.51600    5.40000E-02
     3.90000    2564.10    1.51300    5.50000E-02
     3.95000    2531.65    1.50800    6.10000E-02
     4.00000    2500.00    1.51800    6.10000E-02
     4.05000    2469.14    1.51100    5.30000E-02
     4.10000    2439.02    1.50700    5.50000E-02
     4.15000    2409.64    1.50300    5.50000E-02
     4.20000    2380.95    1.50200    5.40000E-02
     4.25000    2352.94    1.49200    4.40000E-02
     4.30000    2325.58    1.46700    6.20000E-02
     4.35000    2298.85    1.49100    7.80000E-02
     4.40000    2272.73    1.48900    6.40000E-02
     4.45000    2247.19    1.48300    6.60000E-02
     4.50000    2222.22    1.48100    6.80000E-02
     4.55000    2197.80    1.48000    6.70000E-02
     4.60000    2173.91    1.47600    6.50000E-02
     4.65000    2150.54    1.47100    6.60000E-02
     4.70000    2127.66    1.46800    6.80000E-02
     4.75000    2105.26    1.46600    6.70000E-02
     4.80000    2083.33    1.46200    6.60000E-02
     4.85000    2061.86    1.45700    6.50000E-02
     4.90000    2040.82    1.45100    6.40000E-02
     4.95000    2020.20    1.44600    6.40000E-02
     5.00000    2000.00    1.44100    6.40000E-02
     5.05000    1980.20    1.43600    6.00000E-02
     5.10000    1960.78    1.42300    5.70000E-02
     5.15000    1941.75    1.41200    6.20000E-02
     5.20000    1923.08    1.40600    6.60000E-02
     5.25000    1904.76    1.40000    6.80000E-02
     5.30000    1886.79    1.39300    7.00000E-02
     5.35000    1869.16    1.38700    6.90000E-02
     5.40000    1851.85    1.37700    6.70000E-02
     5.45000    1834.86    1.36500    6.70000E-02
     5.50000    1818.18    1.34700    6.70000E-02
     5.55000    1801.80    1.32700    8.90000E-02
     5.60000    1785.71    1.35200    9.50000E-02
     5.65000    1769.91    1.33200    7.20000E-02
     5.70000    1754.39    1.31600    7.70000E-02
     5.75000    1739.13    1.30200    7.50000E-02
     5.80000    1724.14    1.28600    7.50000E-02
     5.85000    1709.40    1.26700    7.10000E-02
     5.90000    1694.92    1.24200    7.10000E-02
     5.95000    1680.67    1.21700    7.40000E-02
     6.00000    1666.67    1.18800    7.80000E-02
     6.05000    1652.89    1.16700    8.40000E-02
     6.10000    1639.34    1.12700    7.70000E-02
     6.15000    1626.02    1.08700    8.50000E-02
     6.20000    1612.90    1.03800    8.70000E-02
     6.25000    1600.00   0.987000    9.60000E-02
     6.30000    1587.30   0.895000    9.20000E-02
     6.35000    1574.80   0.816000   0.147000
     6.40000    1562.50   0.646000   0.118000
     6.45000    1550.39   0.421000   0.357000
     6.50000    1538.46   0.403000   0.645000
     6.55000    1526.72   0.476000   0.856000
     6.60000    1515.15   0.543000    1.02800
     6.65000    1503.76   0.633000    1.19100
     6.70000    1492.54   0.740000    1.34700
     6.75000    1481.48   0.871000    1.49000
     6.80000    1470.59    1.03600    1.64800
     6.85000    1459.85    1.25100    1.74700
     6.90000    1449.28    1.47000    1.84300
     6.95000    1438.85    1.73100    1.87100
     7.00000    1428.57    2.01600    1.93100
     7.05000    1418.44    2.48100    1.86700
     7.10000    1408.45    2.91000    1.47600
     7.15000    1398.60    2.97700   0.912000
     7.20000    1388.89    2.76200   0.559000
     7.25000    1379.31    2.58100   0.408000
     7.30000    1369.86    2.42400   0.315000
     7.35000    1360.54    2.31200   0.282000
     7.40000    1351.35    2.23000   0.263000
     7.45000    1342.28    2.17500   0.243000
     7.50000    1333.33    2.11400   0.228000
     7.55000    1324.50    2.07900   0.219000
     7.60000    1315.79    2.03400   0.205000
     7.65000    1307.19    2.00200   0.207000
     7.70000    1298.70    1.97900   0.198000
     7.75000    1290.32    1.94600   0.191000
     7.80000    1282.05    1.92300   0.193000
     7.85000    1273.89    1.90200   0.189000
     7.90000    1265.82    1.87700   0.193000
     7.95000    1257.86    1.86200   0.205000
     8.00000    1250.00    1.86000   0.211000
     8.05000    1242.24    1.85800   0.203000
     8.10000    1234.57    1.84700   0.194000
     8.15000    1226.99    1.83200   0.192000
     8.20000    1219.51    1.81900   0.192000
     8.25000    1212.12    1.81100   0.192000
     8.30000    1204.82    1.80000   0.192000
     8.35000    1197.60    1.79400   0.193000
     8.40000    1190.48    1.78300   0.195000
     8.45000    1183.43    1.78100   0.198000
     8.50000    1176.47    1.77500   0.195000
     8.55000    1169.59    1.76800   0.195000
     8.60000    1162.79    1.76200   0.197000
     8.65000    1156.07    1.75800   0.199000
     8.70000    1149.43    1.75500   0.198000
     8.75000    1142.86    1.74700   0.199000
     8.80000    1136.36    1.75000   0.200000
     8.85000    1129.94    1.74300   0.193000
     8.90000    1123.60    1.73400   0.199000
     8.95000    1117.32    1.73600   0.201000
     9.00000    1111.11    1.73200   0.199000
     9.05000    1104.97    1.73100   0.198000
     9.10000    1098.90    1.72300   0.196000
     9.15000    1092.90    1.72000   0.202000
     9.20000    1086.96    1.72300   0.201000
     9.25000    1081.08    1.71700   0.199000
     9.30000    1075.27    1.71700   0.200000
     9.35000    1069.52    1.71600   0.199000
     9.40000    1063.83    1.71500   0.196000
     9.45000    1058.20    1.70800   0.193000
     9.50000    1052.63    1.70300   0.195000
     9.55000    1047.12    1.70300   0.194000
     9.60000    1041.67    1.69800   0.192000
     9.65000    1036.27    1.69400   0.199000
     9.70000    1030.93    1.70200   0.198000
     9.75000    1025.64    1.69600   0.188000
     9.80000    1020.41    1.68800   0.188000
     9.85000    1015.23    1.68400   0.191000
     9.90000    1010.10    1.68700   0.193000
     9.95000   1005.025    1.68400   0.189000
    10.00000   1000.000    1.68100   0.187000
    10.05000    995.025    1.67800   0.184000
    10.10000    990.099    1.67500   0.182000
    10.15000    985.222    1.67200   0.179000
    10.20000    980.392    1.66400   0.178000
    10.25000    975.610    1.66100   0.177000
    10.30000    970.874    1.65600   0.174000
    10.35000    966.184    1.65100   0.172000
    10.40000    961.539    1.64300   0.170000
    10.45000    956.938    1.63700   0.169000
    10.50000    952.381    1.62700   0.169000
    10.55000    947.867    1.62200   0.169000
     10.6000    943.396    1.61300   0.169000
     10.6500    938.967    1.60400   0.171000
     10.7000    934.579    1.59600   0.171000
     10.7500    930.233    1.58600   0.171000
     10.8000    925.926    1.57600   0.170000
     10.8500    921.659    1.56200   0.170000
     10.9000    917.431    1.54500   0.169000
     10.9500    913.242    1.52200   0.170000
     11.0000    909.091    1.49700   0.174000
     11.0500    904.977    1.46000   0.176000
     11.1000    900.901    1.40300   0.190000
     11.1500    896.861    1.32800   0.233000
     11.2000    892.857    1.24200   0.330000
     11.2500    888.889    1.19100   0.507000
     11.3000    884.956    1.24600   0.748000
     11.3500    881.057    1.46000   0.977000
     11.4000    877.193    1.84400    1.06100
     11.4500    873.362    2.23700   0.819000
     11.5000    869.565    2.28600   0.407000
     11.5500    865.801    2.12300   0.185000
     11.6000    862.069    1.97100   0.132000
     11.6500    858.369    1.89500   0.128000
     11.7000    854.701    1.83000   0.124000
     11.7500    851.064    1.79500   0.140000
     11.8000    847.458    1.77500   0.145000
     11.8500    843.882    1.76100   0.145000
     11.9000    840.336    1.74300   0.144000
     11.9500    836.820    1.72900   0.145000
     12.0000    833.333    1.71300   0.148000
     12.0500    829.875    1.70700   0.152000
     12.1000    826.446    1.69700   0.152000
     12.1500    823.045    1.69100   0.155000
     12.2000    819.672    1.68300   0.157000
     12.2500    816.327    1.68000   0.159000
     12.3000    813.008    1.67500   0.158000
     12.3500    809.717    1.67000   0.161000
     12.4000    806.452    1.67100   0.159000
     12.4500    803.213    1.66100   0.156000
     12.5000    800.000    1.66000   0.159000
     12.5500    796.813    1.65600   0.155000
     12.6000    793.651    1.65000   0.153000
     12.6500    790.514    1.64500   0.154000
     12.7000    787.402    1.64000   0.154000
     12.7500    784.314    1.63600   0.154000
     12.8000    781.250    1.63200   0.154000
     12.8500    778.210    1.63000   0.154000
     12.9000    775.194    1.62400   0.153000
     12.9500    772.201    1.62100   0.153000
